%ArduinoTime [ms]	Reference Position [rad]	Measured Position [rad]	Actual Current [A]	Proportional Gain [Kp]	Derivative Gain [Kd]	Integral Gain [Ki]	%11/4/20212:08 PM
0.000	0.000	0.000	0.000	0.000	0.000	0.000
185575.000	0.000	0.020	-0.047	77.000	26.379	0.000
185605.000	0.000	0.020	-0.047	77.000	26.379	0.000
185605.000	0.000	0.020	-0.047	77.000	26.379	0.000
185605.000	0.000	0.020	-0.047	77.000	26.379	0.000
185635.000	0.000	0.020	-0.047	77.000	26.379	0.000
185635.000	0.000	0.020	-0.047	77.000	26.379	0.000
185635.000	0.000	0.020	-0.047	77.000	26.379	0.000
185665.000	0.000	0.020	-0.047	77.000	26.379	0.000
185665.000	0.000	0.020	-0.047	77.000	26.379	0.000
185665.000	0.000	0.020	-0.047	77.000	26.379	0.000
185695.000	0.000	0.020	-0.047	77.000	26.379	0.000
185695.000	0.000	0.020	-0.047	77.000	26.379	0.000
185695.000	0.000	0.020	-0.047	77.000	26.379	0.000
185725.000	0.000	0.020	-0.047	77.000	26.379	0.000
185725.000	0.000	0.020	-0.047	77.000	26.379	0.000
185725.000	0.000	0.020	-0.047	77.000	26.379	0.000
185755.000	0.000	0.020	-0.047	77.000	26.379	0.000
185755.000	0.000	0.020	-0.047	77.000	26.379	0.000
185755.000	0.000	0.020	-0.047	77.000	26.379	0.000
185785.000	0.000	0.020	-0.047	77.000	26.379	0.000
185785.000	0.000	0.020	-0.047	77.000	26.379	0.000
185785.000	0.000	0.020	-0.047	77.000	26.379	0.000
185815.000	0.000	0.020	-0.047	77.000	26.379	0.000
185815.000	0.000	0.020	-0.047	77.000	26.379	0.000
185815.000	0.000	0.020	-0.047	77.000	26.379	0.000
185845.000	0.000	0.020	-0.047	77.000	26.379	0.000
185845.000	0.000	0.020	-0.047	77.000	26.379	0.000
185845.000	0.000	0.020	-0.047	77.000	26.379	0.000
185875.000	0.000	0.020	-0.047	77.000	26.379	0.000
185875.000	0.000	0.020	-0.047	77.000	26.379	0.000
185875.000	0.000	0.020	-0.047	77.000	26.379	0.000
185905.000	0.000	0.020	-0.047	77.000	26.379	0.000
185905.000	0.000	0.020	-0.047	77.000	26.379	0.000
185905.000	0.000	0.020	-0.047	77.000	26.379	0.000
185935.000	0.000	0.020	-0.047	77.000	26.379	0.000
185935.000	0.000	0.020	-0.047	77.000	26.379	0.000
185935.000	0.000	0.020	-0.047	77.000	26.379	0.000
185965.000	0.000	0.020	-0.047	77.000	26.379	0.000
185965.000	0.000	0.020	-0.047	77.000	26.379	0.000
185965.000	0.000	0.020	-0.047	77.000	26.379	0.000
185995.000	0.000	0.020	-0.047	77.000	26.379	0.000
185995.000	0.000	0.020	-0.047	77.000	26.379	0.000
185995.000	0.000	0.020	-0.047	77.000	26.379	0.000
186025.000	0.000	0.020	-0.047	77.000	26.379	0.000
186025.000	0.000	0.020	-0.047	77.000	26.379	0.000
186025.000	0.000	0.020	-0.047	77.000	26.379	0.000
186055.000	0.000	0.020	-0.047	77.000	26.379	0.000
186055.000	0.000	0.020	-0.047	77.000	26.379	0.000
186055.000	0.000	0.020	-0.047	77.000	26.379	0.000
186085.000	0.000	0.020	-0.047	77.000	26.379	0.000
186085.000	0.000	0.020	-0.047	77.000	26.379	0.000
186085.000	0.000	0.020	-0.047	77.000	26.379	0.000
186115.000	0.000	0.020	-0.047	77.000	26.379	0.000
186115.000	0.000	0.020	-0.047	77.000	26.379	0.000
186115.000	0.000	0.020	-0.047	77.000	26.379	0.000
186145.000	0.000	0.020	-0.047	77.000	26.379	0.000
186145.000	0.000	0.020	-0.047	77.000	26.379	0.000
186145.000	0.000	0.020	-0.047	77.000	26.379	0.000
186175.000	0.000	0.020	-0.047	77.000	26.379	0.000
186175.000	0.000	0.020	-0.047	77.000	26.379	0.000
186175.000	0.000	0.020	-0.047	77.000	26.379	0.000
186205.000	0.000	0.020	-0.047	77.000	26.379	0.000
186205.000	0.000	0.020	-0.047	77.000	26.379	0.000
186205.000	0.000	0.020	-0.047	77.000	26.379	0.000
186235.000	0.000	0.020	-0.047	77.000	26.379	0.000
186235.000	0.000	0.020	-0.047	77.000	26.379	0.000
186235.000	0.000	0.020	-0.047	77.000	26.379	0.000
186265.000	0.000	0.020	-0.047	77.000	26.379	0.000
186265.000	0.000	0.020	-0.047	77.000	26.379	0.000
186265.000	0.000	0.020	-0.047	77.000	26.379	0.000
186295.000	0.000	0.020	-0.047	77.000	26.379	0.000
186295.000	0.000	0.020	-0.047	77.000	26.379	0.000
186295.000	0.000	0.020	-0.047	77.000	26.379	0.000
186325.000	0.000	0.020	-0.047	77.000	26.379	0.000
186325.000	0.000	0.020	-0.047	77.000	26.379	0.000
186325.000	0.000	0.020	-0.047	77.000	26.379	0.000
186355.000	0.000	0.020	-0.047	77.000	26.379	0.000
186355.000	0.000	0.020	-0.047	77.000	26.379	0.000
186355.000	0.000	0.020	-0.047	77.000	26.379	0.000
186385.000	0.000	0.020	-0.047	77.000	26.379	0.000
186385.000	0.000	0.020	-0.047	77.000	26.379	0.000
186385.000	0.000	0.020	-0.047	77.000	26.379	0.000
186415.000	0.000	0.020	-0.047	77.000	26.379	0.000
186415.000	0.000	0.020	-0.047	77.000	26.379	0.000
186415.000	0.000	0.020	-0.047	77.000	26.379	0.000
186445.000	0.000	0.020	-0.047	77.000	26.379	0.000
186445.000	0.000	0.020	-0.047	77.000	26.379	0.000
186445.000	0.000	0.020	-0.047	77.000	26.379	0.000
186475.000	0.000	0.020	-0.047	77.000	26.379	0.000
186475.000	0.000	0.020	-0.047	77.000	26.379	0.000
186475.000	0.000	0.020	-0.047	77.000	26.379	0.000
186505.000	0.000	0.020	-0.047	77.000	26.379	0.000
186505.000	0.000	0.020	-0.047	77.000	26.379	0.000
186505.000	0.000	0.020	-0.047	77.000	26.379	0.000
186535.000	0.000	0.020	-0.047	77.000	26.379	0.000
186535.000	0.000	0.020	-0.047	77.000	26.379	0.000
186535.000	0.000	0.020	-0.047	77.000	26.379	0.000
186565.000	0.000	0.020	-0.047	77.000	26.379	0.000
186565.000	0.000	0.020	-0.047	77.000	26.379	0.000
186565.000	0.000	0.020	-0.047	77.000	26.379	0.000
186595.000	0.000	0.020	-0.047	77.000	26.379	0.000
186595.000	0.000	0.020	-0.047	77.000	26.379	0.000
186595.000	0.000	0.020	-0.047	77.000	26.379	0.000
186625.000	0.000	0.020	-0.047	77.000	26.379	0.000
186625.000	0.000	0.020	-0.047	77.000	26.379	0.000
186625.000	0.000	0.020	-0.047	77.000	26.379	0.000
186655.000	0.000	0.020	-0.047	77.000	26.379	0.000
186655.000	0.000	0.020	-0.047	77.000	26.379	0.000
186655.000	0.000	0.020	-0.047	77.000	26.379	0.000
186685.000	0.000	0.020	-0.047	77.000	26.379	0.000
186685.000	0.000	0.020	-0.047	77.000	26.379	0.000
186685.000	0.000	0.020	-0.047	77.000	26.379	0.000
186715.000	0.000	0.020	-0.047	77.000	26.379	0.000
186715.000	0.000	0.020	-0.047	77.000	26.379	0.000
186715.000	0.000	0.020	-0.047	77.000	26.379	0.000
186745.000	0.000	0.020	-0.047	77.000	26.379	0.000
186745.000	0.000	0.020	-0.047	77.000	26.379	0.000
186745.000	0.000	0.020	-0.047	77.000	26.379	0.000
186775.000	0.000	0.020	-0.047	77.000	26.379	0.000
186775.000	0.000	0.020	-0.047	77.000	26.379	0.000
186775.000	0.000	0.020	-0.047	77.000	26.379	0.000
186805.000	0.000	0.020	-0.047	77.000	26.379	0.000
186805.000	0.000	0.020	-0.047	77.000	26.379	0.000
186805.000	0.000	0.020	-0.047	77.000	26.379	0.000
186835.000	0.000	0.020	-0.047	77.000	26.379	0.000
186835.000	0.000	0.020	-0.047	77.000	26.379	0.000
186835.000	0.000	0.020	-0.047	77.000	26.379	0.000
186865.000	0.000	0.020	-0.047	77.000	26.379	0.000
186865.000	0.000	0.020	-0.047	77.000	26.379	0.000
186865.000	0.000	0.020	-0.047	77.000	26.379	0.000
186895.000	0.000	0.020	-0.047	77.000	26.379	0.000
186895.000	0.000	0.020	-0.047	77.000	26.379	0.000
186895.000	0.000	0.020	-0.047	77.000	26.379	0.000
186925.000	0.000	0.020	-0.047	77.000	26.379	0.000
186925.000	0.000	0.020	-0.047	77.000	26.379	0.000
186925.000	0.000	0.020	-0.047	77.000	26.379	0.000
186955.000	0.000	0.020	-0.047	77.000	26.379	0.000
186955.000	0.000	0.020	-0.047	77.000	26.379	0.000
186955.000	0.000	0.020	-0.047	77.000	26.379	0.000
186985.000	0.000	0.020	-0.047	77.000	26.379	0.000
186985.000	0.000	0.020	-0.047	77.000	26.379	0.000
186985.000	0.000	0.020	-0.047	77.000	26.379	0.000
187015.000	0.000	0.020	-0.047	77.000	26.379	0.000
187015.000	0.000	0.020	-0.047	77.000	26.379	0.000
187015.000	0.000	0.020	-0.047	77.000	26.379	0.000
187045.000	0.000	0.020	-0.047	77.000	26.379	0.000
187045.000	0.000	0.020	-0.047	77.000	26.379	0.000
187045.000	0.000	0.020	-0.047	77.000	26.379	0.000
187075.000	0.000	0.020	-0.047	77.000	26.379	0.000
187075.000	0.000	0.020	-0.047	77.000	26.379	0.000
187075.000	0.000	0.020	-0.047	77.000	26.379	0.000
187105.000	0.000	0.020	-0.047	77.000	26.379	0.000
187105.000	0.000	0.020	-0.047	77.000	26.379	0.000
187105.000	0.000	0.020	-0.047	77.000	26.379	0.000
187135.000	0.000	0.020	-0.047	77.000	26.379	0.000
187135.000	0.000	0.020	-0.047	77.000	26.379	0.000
187135.000	0.000	0.020	-0.047	77.000	26.379	0.000
187165.000	0.000	0.020	-0.047	77.000	26.379	0.000
187165.000	0.000	0.020	-0.047	77.000	26.379	0.000
187165.000	0.000	0.020	-0.047	77.000	26.379	0.000
187195.000	0.000	0.020	-0.047	77.000	26.379	0.000
187195.000	0.000	0.020	-0.047	77.000	26.379	0.000
187195.000	0.000	0.020	-0.047	77.000	26.379	0.000
187225.000	0.000	0.020	-0.047	77.000	26.379	0.000
187225.000	0.000	0.020	-0.047	77.000	26.379	0.000
187225.000	0.000	0.020	-0.047	77.000	26.379	0.000
187255.000	0.000	0.020	-0.047	77.000	26.379	0.000
187255.000	0.000	0.020	-0.047	77.000	26.379	0.000
187255.000	0.000	0.020	-0.047	77.000	26.379	0.000
187285.000	0.000	0.020	-0.047	77.000	26.379	0.000
187285.000	0.000	0.020	-0.047	77.000	26.379	0.000
187285.000	0.000	0.020	-0.047	77.000	26.379	0.000
187315.000	0.000	0.020	-0.047	77.000	26.379	0.000
187315.000	0.000	0.020	-0.047	77.000	26.379	0.000
187315.000	0.000	0.020	-0.047	77.000	26.379	0.000
187345.000	0.000	0.020	-0.047	77.000	26.379	0.000
187345.000	0.000	0.020	-0.047	77.000	26.379	0.000
187345.000	0.000	0.020	-0.047	77.000	26.379	0.000
187375.000	0.000	0.020	-0.047	77.000	26.379	0.000
187375.000	0.000	0.020	-0.047	77.000	26.379	0.000
187375.000	0.000	0.020	-0.047	77.000	26.379	0.000
187405.000	0.000	0.020	-0.047	77.000	26.379	0.000
187405.000	0.000	0.020	-0.047	77.000	26.379	0.000
187405.000	0.000	0.020	-0.047	77.000	26.379	0.000
187435.000	0.000	0.020	-0.047	77.000	26.379	0.000
187435.000	0.000	0.020	-0.047	77.000	26.379	0.000
187435.000	0.000	0.020	-0.047	77.000	26.379	0.000
187465.000	0.000	0.020	-0.047	77.000	26.379	0.000
187465.000	0.000	0.020	-0.047	77.000	26.379	0.000
187465.000	0.000	0.020	-0.047	77.000	26.379	0.000
187495.000	0.000	0.020	-0.047	77.000	26.379	0.000
187495.000	0.000	0.020	-0.047	77.000	26.379	0.000
187495.000	0.000	0.020	-0.047	77.000	26.379	0.000
187525.000	0.000	0.020	-0.047	77.000	26.379	0.000
187525.000	0.000	0.020	-0.047	77.000	26.379	0.000
187525.000	0.000	0.020	-0.047	77.000	26.379	0.000
187555.000	0.000	0.020	-0.047	77.000	26.379	0.000
187555.000	0.000	0.020	-0.047	77.000	26.379	0.000
187555.000	0.000	0.020	-0.047	77.000	26.379	0.000
187585.000	0.000	0.020	-0.047	77.000	26.379	0.000
187585.000	0.000	0.020	-0.047	77.000	26.379	0.000
187585.000	0.000	0.020	-0.047	77.000	26.379	0.000
187615.000	0.000	0.020	-0.047	77.000	26.379	0.000
187615.000	0.000	0.020	-0.047	77.000	26.379	0.000
187615.000	0.000	0.020	-0.047	77.000	26.379	0.000
187645.000	0.000	0.020	-0.047	77.000	26.379	0.000
187645.000	0.000	0.020	-0.047	77.000	26.379	0.000
187645.000	0.000	0.020	-0.047	77.000	26.379	0.000
187675.000	0.000	0.020	-0.047	77.000	26.379	0.000
187675.000	0.000	0.020	-0.047	77.000	26.379	0.000
187675.000	0.000	0.020	-0.047	77.000	26.379	0.000
187705.000	0.000	0.020	-0.047	77.000	26.379	0.000
187705.000	0.000	0.020	-0.047	77.000	26.379	0.000
187705.000	0.000	0.020	-0.047	77.000	26.379	0.000
187735.000	0.000	0.020	-0.047	77.000	26.379	0.000
187735.000	0.000	0.020	-0.047	77.000	26.379	0.000
187735.000	0.000	0.020	-0.047	77.000	26.379	0.000
187765.000	0.000	0.020	-0.047	77.000	26.379	0.000
187765.000	0.000	0.020	-0.047	77.000	26.379	0.000
187765.000	0.000	0.020	-0.047	77.000	26.379	0.000
187795.000	0.000	0.020	-0.047	77.000	26.379	0.000
187795.000	0.000	0.020	-0.047	77.000	26.379	0.000
187795.000	0.000	0.020	-0.047	77.000	26.379	0.000
187825.000	0.000	0.020	-0.047	77.000	26.379	0.000
187825.000	0.000	0.020	-0.047	77.000	26.379	0.000
187825.000	0.000	0.020	-0.047	77.000	26.379	0.000
187855.000	0.000	0.020	-0.047	77.000	26.379	0.000
187855.000	0.000	0.020	-0.047	77.000	26.379	0.000
187855.000	0.000	0.020	-0.047	77.000	26.379	0.000
187885.000	0.000	0.020	-0.047	77.000	26.379	0.000
187885.000	0.000	0.020	-0.047	77.000	26.379	0.000
187885.000	0.000	0.020	-0.047	77.000	26.379	0.000
187915.000	0.000	0.020	-0.047	77.000	26.379	0.000
187915.000	0.000	0.020	-0.047	77.000	26.379	0.000
187915.000	0.000	0.020	-0.047	77.000	26.379	0.000
187945.000	0.000	0.020	-0.047	77.000	26.379	0.000
187945.000	0.000	0.020	-0.047	77.000	26.379	0.000
187945.000	0.000	0.020	-0.047	77.000	26.379	0.000
187975.000	0.000	0.020	-0.047	77.000	26.379	0.000
187975.000	0.000	0.020	-0.047	77.000	26.379	0.000
187975.000	0.000	0.020	-0.047	77.000	26.379	0.000
188005.000	0.000	0.020	-0.047	77.000	26.379	0.000
188005.000	0.000	0.020	-0.047	77.000	26.379	0.000
188005.000	0.000	0.020	-0.047	77.000	26.379	0.000
188035.000	0.000	0.020	-0.047	77.000	26.379	0.000
188035.000	0.000	0.020	-0.047	77.000	26.379	0.000
188035.000	0.000	0.020	-0.047	77.000	26.379	0.000
188065.000	0.000	0.020	-0.047	77.000	26.379	0.000
188065.000	0.000	0.020	-0.047	77.000	26.379	0.000
188065.000	0.000	0.020	-0.047	77.000	26.379	0.000
188095.000	0.000	0.020	-0.047	77.000	26.379	0.000
188095.000	0.000	0.020	-0.047	77.000	26.379	0.000
188095.000	0.000	0.020	-0.047	77.000	26.379	0.000
188125.000	0.000	0.020	-0.047	77.000	26.379	0.000
188125.000	0.000	0.020	-0.047	77.000	26.379	0.000
188125.000	0.000	0.020	-0.047	77.000	26.379	0.000
188155.000	0.000	0.020	-0.047	77.000	26.379	0.000
188155.000	0.000	0.020	-0.047	77.000	26.379	0.000
188155.000	0.000	0.020	-0.047	77.000	26.379	0.000
188185.000	0.000	0.020	-0.047	77.000	26.379	0.000
188185.000	0.000	0.020	-0.047	77.000	26.379	0.000
188185.000	0.000	0.020	-0.047	77.000	26.379	0.000
188215.000	0.000	0.020	-0.047	77.000	26.379	0.000
188215.000	0.000	0.020	-0.047	77.000	26.379	0.000
188215.000	0.000	0.020	-0.047	77.000	26.379	0.000
188245.000	0.000	0.020	-0.047	77.000	26.379	0.000
188245.000	0.000	0.020	-0.047	77.000	26.379	0.000
188245.000	0.000	0.020	-0.047	77.000	26.379	0.000
188275.000	0.000	0.020	-0.047	77.000	26.379	0.000
188275.000	0.000	0.020	-0.047	77.000	26.379	0.000
188275.000	0.000	0.020	-0.047	77.000	26.379	0.000
188305.000	0.000	0.020	-0.047	77.000	26.379	0.000
188305.000	0.000	0.020	-0.047	77.000	26.379	0.000
188305.000	0.000	0.020	-0.047	77.000	26.379	0.000
188335.000	0.000	0.020	-0.047	77.000	26.379	0.000
188335.000	0.000	0.020	-0.047	77.000	26.379	0.000
188335.000	0.000	0.020	-0.047	77.000	26.379	0.000
188365.000	0.000	0.020	-0.047	77.000	26.379	0.000
188365.000	0.000	0.020	-0.047	77.000	26.379	0.000
188365.000	0.000	0.020	-0.047	77.000	26.379	0.000
188395.000	0.000	0.020	-0.047	77.000	26.379	0.000
188395.000	0.000	0.020	-0.047	77.000	26.379	0.000
188395.000	0.000	0.020	-0.047	77.000	26.379	0.000
188425.000	0.000	0.020	-0.047	77.000	26.379	0.000
188425.000	0.000	0.020	-0.047	77.000	26.379	0.000
188425.000	0.000	0.020	-0.047	77.000	26.379	0.000
188455.000	0.000	0.020	-0.047	77.000	26.379	0.000
188455.000	0.000	0.020	-0.047	77.000	26.379	0.000
188455.000	0.000	0.020	-0.047	77.000	26.379	0.000
188485.000	0.000	0.020	-0.047	77.000	26.379	0.000
188485.000	0.000	0.020	-0.047	77.000	26.379	0.000
188485.000	0.000	0.020	-0.047	77.000	26.379	0.000
188515.000	0.000	0.020	-0.062	77.000	26.379	0.000
188515.000	0.000	0.020	-0.062	77.000	26.379	0.000
188515.000	0.000	0.020	-0.062	77.000	26.379	0.000
188545.000	0.000	0.020	-0.047	77.000	26.379	0.000
188545.000	0.000	0.020	-0.047	77.000	26.379	0.000
188545.000	0.000	0.020	-0.047	77.000	26.379	0.000
188575.000	0.000	0.020	-0.047	77.000	26.379	0.000
188575.000	0.000	0.020	-0.047	77.000	26.379	0.000
188575.000	0.000	0.020	-0.047	77.000	26.379	0.000
188605.000	0.000	0.020	-0.047	77.000	26.379	0.000
188605.000	0.000	0.020	-0.047	77.000	26.379	0.000
188605.000	0.000	0.020	-0.047	77.000	26.379	0.000
188635.000	0.000	0.020	-0.047	77.000	26.379	0.000
188635.000	0.000	0.020	-0.047	77.000	26.379	0.000
188635.000	0.000	0.020	-0.047	77.000	26.379	0.000
188665.000	0.000	0.020	-0.062	77.000	26.379	0.000
188665.000	0.000	0.020	-0.062	77.000	26.379	0.000
188665.000	0.000	0.020	-0.062	77.000	26.379	0.000
188695.000	0.000	0.020	-0.062	77.000	26.379	0.000
188695.000	0.000	0.020	-0.062	77.000	26.379	0.000
188695.000	0.000	0.020	-0.062	77.000	26.379	0.000
188725.000	0.000	0.020	-0.047	77.000	26.379	0.000
188725.000	0.000	0.020	-0.047	77.000	26.379	0.000
188725.000	0.000	0.020	-0.047	77.000	26.379	0.000
188755.000	0.000	0.020	-0.047	77.000	26.379	0.000
188755.000	0.000	0.020	-0.047	77.000	26.379	0.000
188755.000	0.000	0.020	-0.047	77.000	26.379	0.000
188785.000	0.000	0.020	-0.047	77.000	26.379	0.000
188785.000	0.000	0.020	-0.047	77.000	26.379	0.000
188785.000	0.000	0.020	-0.047	77.000	26.379	0.000
188815.000	0.000	0.020	-0.047	77.000	26.379	0.000
188815.000	0.000	0.020	-0.047	77.000	26.379	0.000
188815.000	0.000	0.020	-0.047	77.000	26.379	0.000
188845.000	0.000	0.020	-0.047	77.000	26.379	0.000
188845.000	0.000	0.020	-0.047	77.000	26.379	0.000
188845.000	0.000	0.020	-0.047	77.000	26.379	0.000
188875.000	0.000	0.020	-0.047	77.000	26.379	0.000
188875.000	0.000	0.020	-0.047	77.000	26.379	0.000
188875.000	0.000	0.020	-0.047	77.000	26.379	0.000
188905.000	0.000	0.020	-0.047	77.000	26.379	0.000
188905.000	0.000	0.020	-0.047	77.000	26.379	0.000
188905.000	0.000	0.020	-0.047	77.000	26.379	0.000
188935.000	0.000	0.020	-0.047	77.000	26.379	0.000
188935.000	0.000	0.020	-0.047	77.000	26.379	0.000
188935.000	0.000	0.020	-0.047	77.000	26.379	0.000
188965.000	0.000	0.020	-0.047	77.000	26.379	0.000
188965.000	0.000	0.020	-0.047	77.000	26.379	0.000
188965.000	0.000	0.020	-0.047	77.000	26.379	0.000
188995.000	0.000	0.020	-0.047	77.000	26.379	0.000
188995.000	0.000	0.020	-0.047	77.000	26.379	0.000
188995.000	0.000	0.020	-0.047	77.000	26.379	0.000
189025.000	0.000	0.020	-0.047	77.000	26.379	0.000
189025.000	0.000	0.020	-0.047	77.000	26.379	0.000
189025.000	0.000	0.020	-0.047	77.000	26.379	0.000
189055.000	0.000	0.020	-0.047	77.000	26.379	0.000
189055.000	0.000	0.020	-0.047	77.000	26.379	0.000
189055.000	0.000	0.020	-0.047	77.000	26.379	0.000
189085.000	0.000	0.020	-0.047	77.000	26.379	0.000
189085.000	0.000	0.020	-0.047	77.000	26.379	0.000
189085.000	0.000	0.020	-0.047	77.000	26.379	0.000
189115.000	0.000	0.020	-0.047	77.000	26.379	0.000
189115.000	0.000	0.020	-0.047	77.000	26.379	0.000
189115.000	0.000	0.020	-0.047	77.000	26.379	0.000
189145.000	0.000	0.020	-0.047	77.000	26.379	0.000
189145.000	0.000	0.020	-0.047	77.000	26.379	0.000
189145.000	0.000	0.020	-0.047	77.000	26.379	0.000
189175.000	0.000	0.020	-0.047	77.000	26.379	0.000
189175.000	0.000	0.020	-0.047	77.000	26.379	0.000
189175.000	0.000	0.020	-0.047	77.000	26.379	0.000
189205.000	0.000	0.020	-0.047	77.000	26.379	0.000
189205.000	0.000	0.020	-0.047	77.000	26.379	0.000
189205.000	0.000	0.020	-0.047	77.000	26.379	0.000
189235.000	0.000	0.020	-0.047	77.000	26.379	0.000
189235.000	0.000	0.020	-0.047	77.000	26.379	0.000
189235.000	0.000	0.020	-0.047	77.000	26.379	0.000
189265.000	0.000	0.020	-0.047	77.000	26.379	0.000
189265.000	0.000	0.020	-0.047	77.000	26.379	0.000
189265.000	0.000	0.020	-0.047	77.000	26.379	0.000
189295.000	0.000	0.020	-0.047	77.000	26.379	0.000
189295.000	0.000	0.020	-0.047	77.000	26.379	0.000
189295.000	0.000	0.020	-0.047	77.000	26.379	0.000
189325.000	0.000	0.020	-0.047	77.000	26.379	0.000
189325.000	0.000	0.020	-0.047	77.000	26.379	0.000
189325.000	0.000	0.020	-0.047	77.000	26.379	0.000
189355.000	0.000	0.020	-0.047	77.000	26.379	0.000
189355.000	0.000	0.020	-0.047	77.000	26.379	0.000
189355.000	0.000	0.020	-0.047	77.000	26.379	0.000
189385.000	0.000	0.020	-0.047	77.000	26.379	0.000
189385.000	0.000	0.020	-0.047	77.000	26.379	0.000
189385.000	0.000	0.020	-0.047	77.000	26.379	0.000
189415.000	0.000	0.020	-0.047	77.000	26.379	0.000
189415.000	0.000	0.020	-0.047	77.000	26.379	0.000
189415.000	0.000	0.020	-0.047	77.000	26.379	0.000
189445.000	0.000	0.020	-0.047	77.000	26.379	0.000
189445.000	0.000	0.020	-0.047	77.000	26.379	0.000
189445.000	0.000	0.020	-0.047	77.000	26.379	0.000
